IstTemp[K]=293.00

1500.000,1.364E-006
1500.400,1.348E-006
1500.800,1.319E-006
1501.200,1.324E-006
1501.600,1.413E-006
1502.000,1.306E-006
1502.400,1.304E-006
1502.800,1.469E-006
1503.200,1.310E-006
1503.600,1.271E-006
1504.000,1.274E-006
1504.400,1.331E-006
1504.800,1.277E-006
1505.200,1.283E-006
1505.600,1.288E-006
1506.000,1.344E-006
1506.400,1.309E-006
1506.800,1.176E-006
1507.200,1.191E-006
1507.600,1.363E-006
1508.000,1.238E-006
1508.400,1.304E-006
1508.800,1.294E-006
1509.200,1.385E-006
1509.600,1.331E-006
1510.000,1.276E-006
1510.400,1.285E-006
1510.800,1.407E-006
1511.200,1.385E-006
1511.600,1.380E-006
1512.000,1.413E-006
1512.400,1.476E-006
1512.800,1.399E-006
1513.200,1.441E-006
1513.600,1.314E-006
1514.000,1.360E-006
1514.400,1.349E-006
1514.800,1.359E-006
1515.200,1.303E-006
1515.600,1.312E-006
1516.000,1.337E-006
1516.400,1.228E-006
1516.800,1.184E-006
1517.200,1.293E-006
1517.600,1.290E-006
1518.000,1.297E-006
1518.400,1.257E-006
1518.800,1.274E-006
1519.200,1.351E-006
1519.600,1.356E-006
1520.000,1.317E-006
1520.400,1.327E-006
1520.800,1.421E-006
1521.200,1.426E-006
1521.600,1.383E-006
1522.000,1.411E-006
1522.400,1.402E-006
1522.800,1.293E-006
1523.200,1.408E-006
1523.600,1.453E-006
1524.000,1.431E-006
1524.400,1.485E-006
1524.800,1.352E-006
1525.200,1.369E-006
1525.600,1.382E-006
1526.000,1.392E-006
1526.400,1.454E-006
1526.800,1.266E-006
1527.200,1.334E-006
1527.600,1.377E-006
1528.000,1.377E-006
1528.400,1.352E-006
1528.800,1.332E-006
1529.200,1.269E-006
1529.600,1.240E-006
1530.000,1.334E-006
1530.400,1.302E-006
1530.800,1.341E-006
1531.200,1.354E-006
1531.600,1.480E-006
1532.000,1.383E-006
1532.400,1.233E-006
1532.800,1.400E-006
1533.200,1.402E-006
1533.600,1.376E-006
1534.000,1.341E-006
1534.400,1.329E-006
1534.800,1.319E-006
1535.200,1.351E-006
1535.600,1.238E-006
1536.000,1.366E-006
1536.400,1.282E-006
1536.800,1.327E-006
1537.200,1.362E-006
1537.600,1.363E-006
1538.000,1.269E-006
1538.400,1.286E-006
1538.800,1.245E-006
1539.200,1.350E-006
1539.600,1.136E-006
1540.000,1.232E-006
1540.400,1.339E-006
1540.800,1.324E-006
1541.200,1.269E-006
1541.600,1.184E-006
1542.000,1.229E-006
1542.400,1.205E-006
1542.800,1.255E-006
1543.200,1.198E-006
1543.600,1.265E-006
1544.000,1.200E-006
1544.400,1.306E-006
1544.800,1.377E-006
1545.200,1.342E-006
1545.600,1.308E-006
1546.000,1.344E-006
1546.400,1.381E-006
1546.800,1.311E-006
1547.200,1.415E-006
1547.600,1.420E-006
1548.000,1.487E-006
1548.400,1.341E-006
1548.800,1.379E-006
1549.200,1.316E-006
1549.600,1.354E-006
1550.000,1.369E-006
1550.400,1.293E-006
1550.800,1.391E-006
1551.200,1.407E-006
1551.600,1.338E-006
1552.000,1.267E-006
1552.400,1.195E-006
1552.800,1.215E-006
1553.200,1.289E-006
1553.600,1.334E-006
1554.000,1.276E-006
1554.400,1.255E-006
1554.800,1.328E-006
1555.200,1.202E-006
1555.600,1.263E-006
1556.000,1.255E-006
1556.400,1.232E-006
1556.800,1.279E-006
1557.200,1.202E-006
1557.600,1.266E-006
1558.000,1.207E-006
1558.400,1.289E-006
1558.800,1.362E-006
1559.200,1.214E-006
1559.600,1.297E-006
1560.000,1.288E-006
1560.400,1.241E-006
1560.800,1.180E-006
1561.200,1.150E-006
1561.600,1.229E-006
1562.000,1.236E-006
1562.400,1.203E-006
1562.800,1.343E-006
1563.200,1.287E-006
1563.600,1.342E-006
1564.000,1.271E-006
1564.400,1.273E-006
1564.800,1.320E-006
1565.200,1.218E-006
1565.600,1.280E-006
1566.000,1.271E-006
1566.400,1.220E-006
1566.800,1.199E-006
1567.200,1.116E-006
1567.600,1.249E-006
1568.000,1.151E-006
1568.400,1.076E-006
1568.800,1.240E-006
1569.200,1.302E-006
1569.600,1.069E-006
1570.000,1.179E-006
1570.400,1.178E-006
1570.800,1.235E-006
1571.200,1.273E-006
1571.600,1.298E-006
1572.000,1.241E-006
1572.400,1.294E-006
1572.800,1.363E-006
1573.200,1.233E-006
1573.600,1.313E-006
1574.000,1.262E-006
1574.400,1.197E-006
1574.800,1.124E-006
1575.200,1.218E-006
1575.600,1.221E-006
1576.000,1.236E-006
1576.400,1.337E-006
1576.800,1.317E-006
1577.200,1.266E-006
1577.600,1.263E-006
1578.000,1.228E-006
1578.400,1.274E-006
1578.800,1.240E-006
1579.200,1.220E-006
1579.600,1.267E-006
1580.000,1.198E-006
1580.400,1.252E-006
1580.800,1.243E-006
1581.200,1.232E-006
1581.600,1.157E-006
1582.000,1.205E-006
1582.400,1.239E-006
1582.800,1.133E-006
1583.200,1.236E-006
1583.600,1.188E-006
1584.000,1.200E-006
1584.400,1.143E-006
1584.800,1.064E-006
1585.200,1.106E-006
1585.600,1.185E-006
1586.000,1.115E-006
1586.400,1.251E-006
1586.800,1.203E-006
1587.200,1.210E-006
1587.600,1.289E-006
1588.000,1.188E-006
1588.400,1.223E-006
1588.800,1.081E-006
1589.200,1.117E-006
1589.600,1.274E-006
1590.000,1.279E-006
1590.400,1.274E-006
1590.800,1.226E-006
1591.200,1.237E-006
1591.600,1.379E-006
1592.000,1.221E-006
1592.400,1.158E-006
1592.800,1.176E-006
1593.200,1.266E-006
1593.600,1.229E-006
1594.000,1.224E-006
1594.400,1.267E-006
1594.800,1.234E-006
1595.200,1.202E-006
1595.600,1.249E-006
1596.000,1.151E-006
1596.400,1.237E-006
1596.800,1.112E-006
1597.200,1.179E-006
1597.600,1.127E-006
1598.000,1.190E-006
1598.400,1.223E-006
1598.800,1.171E-006
1599.200,1.328E-006
1599.600,1.282E-006
1600.000,1.203E-006
1600.400,1.265E-006
1600.800,1.218E-006
1601.200,1.196E-006
1601.600,1.252E-006
1602.000,1.230E-006
1602.400,1.221E-006
1602.800,1.228E-006
1603.200,1.170E-006
1603.600,1.207E-006
1604.000,1.364E-006
1604.400,1.256E-006
1604.800,1.219E-006
1605.200,1.367E-006
1605.600,1.323E-006
1606.000,1.288E-006
1606.400,1.371E-006
1606.800,1.364E-006
1607.200,1.349E-006
1607.600,1.196E-006
1608.000,1.242E-006
1608.400,1.347E-006
1608.800,1.200E-006
1609.200,1.306E-006
1609.600,1.307E-006
1610.000,1.362E-006
1610.400,1.170E-006
1610.800,1.241E-006
1611.200,1.239E-006
1611.600,1.118E-006
1612.000,1.250E-006
1612.400,1.141E-006
1612.800,1.155E-006
1613.200,1.321E-006
1613.600,1.267E-006
1614.000,1.188E-006
1614.400,1.302E-006
1614.800,1.226E-006
1615.200,1.213E-006
1615.600,1.215E-006
1616.000,1.242E-006
1616.400,1.241E-006
1616.800,1.179E-006
1617.200,1.164E-006
1617.600,1.086E-006
1618.000,1.155E-006
1618.400,1.227E-006
1618.800,1.132E-006
1619.200,1.212E-006
1619.600,1.248E-006
1620.000,1.188E-006
1620.400,1.257E-006
1620.800,1.172E-006
1621.200,1.226E-006
1621.600,1.151E-006
1622.000,1.102E-006
1622.400,1.107E-006
1622.800,1.096E-006
1623.200,1.174E-006
1623.600,1.123E-006
1624.000,1.122E-006
1624.400,1.124E-006
1624.800,1.125E-006
1625.200,1.019E-006
1625.600,1.197E-006
1626.000,1.184E-006
1626.400,1.142E-006
1626.800,1.208E-006
1627.200,1.140E-006
1627.600,1.147E-006
1628.000,1.123E-006
1628.400,1.219E-006
1628.800,1.143E-006
1629.200,1.228E-006
1629.600,1.259E-006
1630.000,1.132E-006
1630.400,1.176E-006
1630.800,1.116E-006
1631.200,1.135E-006
1631.600,1.134E-006
1632.000,1.056E-006
1632.400,1.077E-006
1632.800,1.065E-006
1633.200,1.116E-006
1633.600,1.160E-006
1634.000,1.139E-006
1634.400,1.098E-006
1634.800,1.108E-006
1635.200,1.086E-006
1635.600,1.103E-006
1636.000,1.178E-006
1636.400,1.107E-006
1636.800,1.116E-006
1637.200,1.123E-006
1637.600,1.239E-006
1638.000,1.190E-006
1638.400,1.256E-006
1638.800,1.151E-006
1639.200,1.229E-006
1639.600,1.189E-006
1640.000,1.245E-006
1640.400,1.180E-006
1640.800,1.124E-006
1641.200,1.163E-006
1641.600,1.185E-006
1642.000,1.127E-006
1642.400,1.219E-006
1642.800,1.105E-006
1643.200,1.197E-006
1643.600,1.189E-006
1644.000,1.179E-006
1644.400,1.122E-006
1644.800,1.114E-006
1645.200,1.133E-006
1645.600,1.106E-006
1646.000,1.114E-006
1646.400,1.096E-006
1646.800,1.155E-006
1647.200,1.077E-006
1647.600,1.126E-006
1648.000,1.081E-006
1648.400,1.101E-006
1648.800,1.066E-006
1649.200,1.224E-006
1649.600,1.187E-006
1650.000,1.250E-006
1650.400,1.203E-006
1650.800,1.173E-006
1651.200,1.139E-006
1651.600,1.184E-006
1652.000,1.114E-006
1652.400,1.068E-006
1652.800,1.058E-006
1653.200,1.045E-006
1653.600,1.006E-006
1654.000,1.127E-006
1654.400,1.192E-006
1654.800,1.133E-006
1655.200,1.237E-006
1655.600,1.173E-006
1656.000,1.099E-006
1656.400,1.164E-006
1656.800,1.100E-006
1657.200,1.169E-006
1657.600,1.252E-006
1658.000,1.135E-006
1658.400,1.143E-006
1658.800,1.084E-006
1659.200,1.150E-006
1659.600,1.060E-006
1660.000,1.155E-006
1660.400,1.171E-006
1660.800,1.052E-006
1661.200,1.029E-006
1661.600,1.087E-006
1662.000,1.027E-006
1662.400,1.144E-006
1662.800,1.143E-006
1663.200,1.218E-006
1663.600,1.081E-006
1664.000,1.182E-006
1664.400,1.127E-006
1664.800,1.138E-006
1665.200,1.045E-006
1665.600,1.119E-006
1666.000,1.058E-006
1666.400,1.092E-006
1666.800,1.084E-006
1667.200,1.088E-006
1667.600,1.172E-006
1668.000,1.151E-006
1668.400,1.159E-006
1668.800,1.150E-006
1669.200,1.171E-006
1669.600,1.148E-006
1670.000,1.165E-006
1670.400,1.149E-006
1670.800,1.092E-006
1671.200,1.191E-006
1671.600,1.114E-006
1672.000,1.037E-006
1672.400,1.090E-006
1672.800,1.087E-006
1673.200,1.201E-006
1673.600,1.112E-006
1674.000,1.093E-006
1674.400,1.088E-006
1674.800,1.128E-006
1675.200,1.068E-006
1675.600,1.056E-006
1676.000,9.930E-007
1676.400,1.002E-006
1676.800,1.008E-006
1677.200,1.003E-006
1677.600,1.015E-006
1678.000,1.030E-006
1678.400,1.035E-006
1678.800,1.154E-006
1679.200,1.181E-006
1679.600,1.044E-006
1680.000,1.080E-006
1680.400,1.143E-006
1680.800,1.085E-006
1681.200,1.191E-006
1681.600,1.153E-006
1682.000,1.123E-006
1682.400,1.201E-006
1682.800,1.136E-006
1683.200,1.087E-006
1683.600,1.118E-006
1684.000,1.127E-006
1684.400,1.108E-006
1684.800,1.093E-006
1685.200,1.187E-006
1685.600,1.034E-006
1686.000,1.181E-006
1686.400,1.146E-006
1686.800,1.046E-006
1687.200,1.129E-006
1687.600,1.066E-006
1688.000,1.168E-006
1688.400,1.160E-006
1688.800,1.097E-006
1689.200,1.048E-006
1689.600,1.138E-006
1690.000,1.080E-006
1690.400,1.106E-006
1690.800,1.030E-006
1691.200,1.047E-006
1691.600,1.056E-006
1692.000,1.163E-006
1692.400,1.080E-006
1692.800,1.097E-006
1693.200,1.008E-006
1693.600,1.052E-006
1694.000,1.147E-006
1694.400,1.183E-006
1694.800,1.131E-006
1695.200,1.022E-006
1695.600,1.090E-006
1696.000,1.125E-006
1696.400,1.059E-006
1696.800,1.161E-006
1697.200,1.032E-006
1697.600,1.020E-006
1698.000,1.133E-006
1698.400,1.077E-006
1698.800,1.119E-006
1699.200,1.082E-006
1699.600,9.707E-007
1700.000,1.127E-006
1700.400,1.175E-006
1700.800,1.014E-006
1701.200,1.064E-006
1701.600,1.160E-006
1702.000,1.167E-006
1702.400,1.145E-006
1702.800,1.181E-006
1703.200,1.097E-006
1703.600,1.179E-006
1704.000,1.183E-006
1704.400,1.121E-006
1704.800,1.102E-006
1705.200,1.075E-006
1705.600,1.025E-006
1706.000,1.034E-006
1706.400,1.053E-006
1706.800,1.055E-006
1707.200,1.013E-006
1707.600,1.030E-006
1708.000,9.988E-007
1708.400,1.049E-006
1708.800,1.137E-006
1709.200,1.037E-006
1709.600,9.200E-007
1710.000,9.951E-007
1710.400,1.029E-006
1710.800,1.079E-006
1711.200,9.600E-007
1711.600,1.167E-006
1712.000,1.117E-006
1712.400,1.084E-006
1712.800,1.097E-006
1713.200,1.057E-006
1713.600,1.075E-006
1714.000,1.060E-006
1714.400,1.013E-006
1714.800,9.593E-007
1715.200,9.822E-007
1715.600,1.026E-006
1716.000,9.155E-007
1716.400,1.001E-006
1716.800,1.069E-006
1717.200,1.006E-006
1717.600,9.891E-007
1718.000,1.015E-006
1718.400,1.031E-006
1718.800,1.057E-006
1719.200,1.090E-006
1719.600,9.344E-007
1720.000,1.034E-006
1720.400,9.450E-007
1720.800,1.033E-006
1721.200,1.024E-006
1721.600,1.058E-006
1722.000,1.093E-006
1722.400,9.822E-007
1722.800,1.023E-006
1723.200,9.368E-007
1723.600,9.641E-007
1724.000,9.477E-007
1724.400,9.530E-007
1724.800,1.021E-006
1725.200,1.017E-006
1725.600,1.012E-006
1726.000,1.012E-006
1726.400,1.047E-006
1726.800,1.035E-006
1727.200,1.059E-006
1727.600,1.028E-006
1728.000,9.968E-007
1728.400,1.003E-006
1728.800,9.524E-007
1729.200,9.328E-007
1729.600,9.483E-007
1730.000,9.347E-007
1730.400,9.910E-007
1730.800,9.975E-007
1731.200,1.070E-006
1731.600,9.443E-007
1732.000,8.606E-007
1732.400,9.653E-007
1732.800,9.706E-007
1733.200,1.034E-006
1733.600,1.058E-006
1734.000,9.906E-007
1734.400,9.646E-007
1734.800,9.994E-007
1735.200,1.001E-006
1735.600,9.719E-007
1736.000,9.312E-007
1736.400,9.863E-007
1736.800,9.025E-007
1737.200,9.239E-007
1737.600,8.349E-007
1738.000,9.780E-007
1738.400,9.872E-007
1738.800,9.868E-007
1739.200,9.433E-007
1739.600,9.699E-007
1740.000,9.346E-007
1740.400,8.778E-007
1740.800,8.211E-007
1741.200,9.611E-007
1741.600,8.189E-007
1742.000,8.112E-007
1742.400,8.236E-007
1742.800,9.098E-007
1743.200,9.922E-007
1743.600,9.266E-007
1744.000,9.627E-007
1744.400,9.962E-007
1744.800,9.217E-007
1745.200,9.405E-007
1745.600,1.094E-006
1746.000,9.476E-007
1746.400,1.016E-006
1746.800,9.878E-007
1747.200,1.012E-006
1747.600,9.549E-007
1748.000,9.964E-007
1748.400,9.863E-007
1748.800,9.401E-007
1749.200,9.644E-007
1749.600,9.298E-007
1750.000,8.184E-007
1750.400,8.998E-007
1750.800,8.890E-007
1751.200,9.077E-007
1751.600,8.712E-007
1752.000,1.000E-006
1752.400,1.091E-006
1752.800,1.074E-006
1753.200,1.035E-006
1753.600,1.058E-006
1754.000,1.018E-006
1754.400,1.008E-006
1754.800,9.453E-007
1755.200,9.353E-007
1755.600,9.425E-007
1756.000,9.631E-007
1756.400,9.388E-007
1756.800,1.038E-006
1757.200,9.076E-007
1757.600,8.525E-007
1758.000,8.992E-007
1758.400,9.878E-007
1758.800,9.648E-007
1759.200,9.363E-007
1759.600,9.770E-007
1760.000,9.865E-007
1760.400,1.040E-006
1760.800,1.023E-006
1761.200,9.740E-007
1761.600,9.493E-007
1762.000,9.900E-007
1762.400,1.040E-006
1762.800,1.038E-006
1763.200,9.986E-007
1763.600,1.024E-006
1764.000,9.617E-007
1764.400,1.034E-006
1764.800,9.646E-007
1765.200,9.590E-007
1765.600,9.700E-007
1766.000,9.616E-007
1766.400,9.292E-007
1766.800,8.770E-007
1767.200,9.555E-007
1767.600,9.889E-007
1768.000,9.378E-007
1768.400,8.567E-007
1768.800,9.735E-007
1769.200,9.463E-007
1769.600,1.025E-006
1770.000,9.349E-007
1770.400,8.266E-007
1770.800,9.432E-007
1771.200,9.062E-007
1771.600,8.776E-007
1772.000,8.235E-007
1772.400,8.697E-007
1772.800,9.483E-007
1773.200,8.793E-007
1773.600,9.503E-007
1774.000,9.020E-007
1774.400,8.912E-007
1774.800,9.345E-007
1775.200,8.575E-007
1775.600,8.967E-007
1776.000,8.319E-007
1776.400,9.659E-007
1776.800,8.479E-007
1777.200,8.582E-007
1777.600,9.403E-007
1778.000,9.596E-007
1778.400,8.720E-007
1778.800,8.575E-007
1779.200,8.449E-007
1779.600,8.410E-007
1780.000,8.338E-007
1780.400,8.626E-007
1780.800,9.279E-007
1781.200,9.791E-007
1781.600,9.092E-007
1782.000,9.568E-007
1782.400,8.938E-007
1782.800,8.487E-007
1783.200,8.366E-007
1783.600,8.023E-007
1784.000,8.473E-007
1784.400,7.950E-007
1784.800,8.641E-007
1785.200,9.714E-007
1785.600,9.941E-007
1786.000,9.717E-007
1786.400,9.965E-007
1786.800,9.534E-007
1787.200,8.389E-007
1787.600,8.978E-007
1788.000,8.465E-007
1788.400,9.610E-007
1788.800,9.267E-007
1789.200,9.429E-007
1789.600,9.883E-007
1790.000,1.046E-006
1790.400,9.475E-007
1790.800,9.402E-007
1791.200,8.791E-007
1791.600,8.313E-007
1792.000,8.660E-007
1792.400,8.272E-007
1792.800,7.989E-007
1793.200,8.934E-007
1793.600,8.272E-007
1794.000,8.441E-007
1794.400,9.001E-007
1794.800,8.569E-007
1795.200,7.865E-007
1795.600,8.003E-007
1796.000,8.729E-007
1796.400,9.112E-007
1796.800,8.772E-007
1797.200,9.038E-007
1797.600,9.355E-007
1798.000,8.463E-007
1798.400,8.364E-007
1798.800,8.197E-007
1799.200,7.552E-007
1799.600,7.959E-007
1800.000,8.984E-007
1800.400,8.601E-007
1800.800,8.559E-007
1801.200,9.001E-007
1801.600,8.054E-007
1802.000,8.873E-007
1802.400,8.323E-007
1802.800,8.487E-007
1803.200,9.740E-007
1803.600,9.154E-007
1804.000,8.577E-007
1804.400,8.483E-007
1804.800,7.540E-007
1805.200,8.520E-007
1805.600,9.316E-007
1806.000,8.038E-007
1806.400,8.481E-007
1806.800,8.764E-007
1807.200,7.973E-007
1807.600,8.295E-007
1808.000,8.928E-007
1808.400,8.472E-007
1808.800,8.314E-007
1809.200,8.272E-007
1809.600,7.608E-007
1810.000,7.748E-007
1810.400,8.471E-007
1810.800,8.489E-007
1811.200,8.191E-007
1811.600,7.545E-007
1812.000,8.187E-007
1812.400,7.766E-007
1812.800,8.184E-007
1813.200,8.677E-007
1813.600,8.535E-007
1814.000,8.447E-007
1814.400,8.243E-007
1814.800,7.848E-007
1815.200,8.159E-007
1815.600,8.031E-007
1816.000,7.508E-007
1816.400,7.289E-007
1816.800,7.962E-007
1817.200,7.730E-007
1817.600,8.646E-007
1818.000,7.607E-007
1818.400,8.181E-007
1818.800,7.529E-007
1819.200,7.451E-007
1819.600,7.689E-007
1820.000,7.390E-007
1820.400,7.484E-007
1820.800,7.103E-007
1821.200,8.620E-007
1821.600,7.824E-007
1822.000,8.861E-007
1822.400,8.517E-007
1822.800,7.852E-007
1823.200,7.548E-007
1823.600,7.597E-007
1824.000,8.342E-007
1824.400,8.163E-007
1824.800,7.604E-007
1825.200,6.836E-007
1825.600,7.350E-007
1826.000,7.870E-007
1826.400,7.822E-007
1826.800,8.396E-007
1827.200,7.614E-007
1827.600,7.935E-007
1828.000,7.823E-007
1828.400,7.378E-007
1828.800,7.525E-007
1829.200,7.327E-007
1829.600,6.282E-007
1830.000,7.653E-007
1830.400,7.404E-007
1830.800,8.806E-007
1831.200,8.184E-007
1831.600,8.353E-007
1832.000,8.437E-007
1832.400,7.846E-007
1832.800,8.334E-007
1833.200,7.931E-007
1833.600,8.001E-007
1834.000,7.626E-007
1834.400,7.585E-007
1834.800,7.375E-007
1835.200,6.788E-007
1835.600,6.687E-007
1836.000,6.516E-007
1836.400,6.906E-007
1836.800,5.917E-007
1837.200,6.146E-007
1837.600,7.384E-007
1838.000,6.990E-007
1838.400,6.741E-007
1838.800,7.007E-007
1839.200,6.956E-007
1839.600,7.436E-007
1840.000,6.800E-007
1840.400,6.827E-007
1840.800,6.608E-007
1841.200,6.766E-007
1841.600,5.987E-007
1842.000,6.387E-007
1842.400,6.471E-007
1842.800,7.642E-007
1843.200,7.942E-007
1843.600,8.125E-007
1844.000,8.550E-007
1844.400,8.406E-007
1844.800,8.558E-007
1845.200,7.813E-007
1845.600,7.475E-007
1846.000,7.035E-007
1846.400,6.425E-007
1846.800,6.462E-007
1847.200,6.247E-007
1847.600,5.939E-007
1848.000,6.659E-007
1848.400,7.673E-007
1848.800,7.362E-007
1849.200,8.369E-007
1849.600,8.359E-007
1850.000,8.304E-007
1850.400,8.335E-007
1850.800,9.247E-007
1851.200,8.038E-007
1851.600,8.297E-007
1852.000,8.434E-007
1852.400,7.356E-007
1852.800,7.349E-007
1853.200,6.876E-007
1853.600,6.905E-007
1854.000,7.953E-007
1854.400,7.897E-007
1854.800,7.117E-007
1855.200,7.792E-007
1855.600,7.833E-007
1856.000,7.780E-007
1856.400,6.692E-007
1856.800,7.103E-007
1857.200,7.020E-007
1857.600,7.362E-007
1858.000,7.247E-007
1858.400,6.771E-007
1858.800,7.266E-007
1859.200,7.444E-007
1859.600,7.243E-007
1860.000,6.487E-007
1860.400,6.709E-007
1860.800,7.178E-007
1861.200,8.703E-007
1861.600,7.887E-007
1862.000,8.475E-007
1862.400,8.075E-007
1862.800,8.358E-007
1863.200,7.817E-007
1863.600,8.038E-007
1864.000,7.612E-007
1864.400,8.348E-007
1864.800,7.755E-007
1865.200,8.030E-007
1865.600,8.827E-007
1866.000,7.754E-007
1866.400,6.093E-007
1866.800,6.692E-007
1867.200,6.557E-007
1867.600,5.744E-007
1868.000,6.054E-007
1868.400,6.338E-007
1868.800,7.192E-007
1869.200,6.691E-007
1869.600,5.452E-007
1870.000,4.959E-007
1870.400,5.963E-007
1870.800,5.624E-007
1871.200,4.957E-007
1871.600,5.612E-007
1872.000,6.109E-007
1872.400,5.662E-007
1872.800,5.589E-007
1873.200,5.745E-007
1873.600,6.710E-007
1874.000,6.356E-007
1874.400,6.574E-007
1874.800,6.454E-007
1875.200,5.532E-007
1875.600,5.621E-007
1876.000,5.265E-007
1876.400,6.062E-007
1876.800,6.605E-007
1877.200,7.066E-007
1877.600,7.559E-007
1878.000,7.398E-007
1878.400,7.621E-007
1878.800,7.018E-007
1879.200,7.465E-007
1879.600,8.313E-007
1880.000,6.902E-007
1880.400,6.266E-007
1880.800,6.658E-007
1881.200,6.898E-007
1881.600,7.587E-007
1882.000,7.482E-007
1882.400,6.978E-007
1882.800,6.777E-007
1883.200,7.546E-007
1883.600,7.747E-007
1884.000,6.991E-007
1884.400,6.329E-007
1884.800,7.037E-007
1885.200,7.767E-007
1885.600,7.014E-007
1886.000,6.772E-007
1886.400,7.249E-007
1886.800,6.994E-007
1887.200,7.064E-007
1887.600,7.432E-007
1888.000,7.607E-007
1888.400,7.482E-007
1888.800,5.791E-007
1889.200,6.896E-007
1889.600,7.011E-007
1890.000,6.223E-007
1890.400,7.649E-007
1890.800,6.998E-007
1891.200,6.953E-007
1891.600,6.589E-007
1892.000,7.265E-007
1892.400,6.678E-007
1892.800,6.617E-007
1893.200,6.777E-007
1893.600,6.569E-007
1894.000,6.964E-007
1894.400,7.026E-007
1894.800,7.156E-007
1895.200,7.365E-007
1895.600,6.870E-007
1896.000,7.747E-007
1896.400,7.114E-007
1896.800,7.244E-007
1897.200,7.157E-007
1897.600,6.741E-007
1898.000,7.032E-007
1898.400,6.730E-007
1898.800,5.756E-007
1899.200,5.825E-007
